 ENERGY(MeV)    R        PR
   0.20000   8.71936   0.00000
   0.40000  12.18936   0.00000
   0.60000  14.82722   0.00000
   0.80000  17.05669   0.00000
   1.00000  19.01329   0.00000
   1.20000  20.76378   0.00000
   1.40000  22.35735   0.00000
   1.60000  23.84875   0.00000
   1.80000  25.27814   0.00000
   2.00000  26.63077   0.00000
   2.20000  27.90552   0.00000
   2.40000  29.11694   0.00000
   2.60000  30.28142   0.00000
   2.80000  31.39836   0.00000
   3.00000  32.47444   0.00000
   3.20000  33.51538   0.00000
   3.40000  34.52455   0.00000
   3.60000  35.50261   0.00000
   3.80000  36.45523   0.00000
   4.00000  37.38166   0.00000
   4.20000  38.28533   0.00000
   4.40000  39.16806   0.00000
   4.60000  40.02967   0.00000
   4.80000  40.87199   0.00000
   5.00000  41.69654   0.00000
   5.20000  42.50361   0.00000
   5.40000  43.29512   0.00000
   5.60000  44.07283   0.00000
   5.80000  44.83743   0.00000
   6.00000  45.58758   0.00000
   6.20000  46.32281   0.00000
   6.40000  47.04437   0.00000
   6.60000  47.75486   0.00000
   6.80000  48.45522   0.00000
   7.00000  49.14658   0.00000
   7.20000  49.82837   0.00000
   7.40000  50.49983   0.00000
   7.60000  51.16071   0.00000
   7.80000  51.81108   0.00000
   8.00000  52.45076   0.00000
   8.20000  53.08275   0.00000
   8.40000  53.70986   0.00000
   8.60000  54.33078   0.00000
   8.80000  54.94462   0.00000
   9.00000  55.55117   0.00000
   9.20000  56.14988   0.00000
   9.40000  56.74075   0.00000
   9.60000  57.32359   0.00000
   9.80000  57.89865   0.00000
  10.00000  58.46683   0.00000
  10.20000  59.03062   0.00000
  10.40000  59.59052   0.00000
  10.60000  60.14529   0.00000
  10.80000  60.69457   0.00000
  11.00000  61.23837   0.00000
  11.20000  61.77644   0.00000
  11.40000  62.30917   0.00000
  11.60000  62.83686   0.00000
  11.80000  63.36036   0.00000
  12.00000  63.88037   0.00000
  12.20000  64.39590   0.00000
  12.40000  64.90632   0.00000
  12.60000  65.41158   0.00000
  12.80000  65.91177   0.00000
  13.00000  66.40719   0.00000
  13.20000  66.89836   0.00000
  13.40000  67.38555   0.00000
  13.60000  67.86873   0.00000
  13.80000  68.34812   0.00000
  14.00000  68.82400   0.00000
  14.20000  69.29659   0.00000
  14.40000  69.76629   0.00000
  14.60000  70.23294   0.00000
  14.80000  70.69616   0.00000
  15.00000  71.15549   0.00000
  15.20000  71.61089   0.00000
  15.40000  72.06316   0.00000
  15.60000  72.51299   0.00000
  15.80000  72.96079   0.00000
  16.00000  73.40676   0.00000
  16.20000  73.84999   0.00000
  16.40000  74.28922   0.00000
  16.60000  74.72464   0.00000
  16.80000  75.15675   0.00000
  17.00000  75.58561   0.00000
  17.20000  76.01150   0.00000
  17.40000  76.43465   0.00000
  17.60000  76.85524   0.00000
  17.80000  77.27333   0.00000
  18.00000  77.68898   0.00000
  18.20000  78.10233   0.00000
  18.40000  78.51325   0.00000
  18.60000  78.92156   0.00000
  18.80000  79.32708   0.00000
  19.00000  79.72961   0.00000
  19.20000  80.12907   0.00000
  19.40000  80.52593   0.00000
  19.60000  80.92075   0.00000
  19.80000  81.31409   0.00000
  20.00000  81.70595   0.00000
  20.20000  82.09604   0.00000
  20.40000  82.48401   0.00000
  20.60000  82.86982   0.00000
  20.80000  83.25344   0.00000
  21.00000  83.63500   0.00000
  21.20000  84.01451   0.00000
  21.40000  84.39217   0.00000
  21.60000  84.76796   0.00000
  21.80000  85.14180   0.00000
  22.00000  85.51346   0.00000
  22.20000  85.88307   0.00000
  22.40000  86.25078   0.00000
  22.60000  86.61673   0.00000
  22.80000  86.98091   0.00000
  23.00000  87.34321   0.00000
  23.20000  87.70356   0.00000
  23.40000  88.06196   0.00000
  23.60000  88.41835   0.00000
  23.80000  88.77304   0.00000
  24.00000  89.12613   0.00000
  24.20000  89.47768   0.00000
  24.40000  89.82761   0.00000
  24.60000  90.17595   0.00000
  24.80000  90.52276   0.00000
  25.00000  90.86805   0.00000
  25.20000  91.21176   0.00000
  25.40000  91.55384   0.00000
  25.60000  91.89439   0.00000
  25.80000  92.23357   0.00000
  26.00000  92.57141   0.00000
  26.20000  92.90796   0.00000
  26.40000  93.24314   0.00000
  26.60000  93.57704   0.00000
  26.80000  93.90952   0.00000
  27.00000  94.24045   0.00000
  27.20000  94.56969   0.00000
  27.40000  94.89739   0.00000
  27.60000  95.22373   0.00000
  27.80000  95.54886   0.00000
  28.00000  95.87277   0.00000
  28.20000  96.19546   0.00000
  28.40000  96.51692   0.00000
  28.60000  96.83718   0.00000
  28.80000  97.15630   0.00000
  29.00000  97.47422   0.00000
  29.20000  97.79080   0.00000
  29.40000  98.10600   0.00000
  29.60000  98.41998   0.00000
  29.80000  98.73270   0.00000
  30.00000  99.04410   0.00000
  30.20000  99.35392   0.00000
  30.40000  99.66250   0.00000
  30.60000  99.96992   0.00000
  30.80000 100.27646   0.00000
  31.00000 100.58192   0.00000
  31.20000 100.88624   0.00000
  31.40000 101.18929   0.00000
  31.60000 101.49104   0.00000
  31.80000 101.79155   0.00000
  32.00000 102.09086   0.00000
  32.20000 102.38901   0.00000
  32.40000 102.68607   0.00000
  32.60000 102.98204   0.00000
  32.80000 103.27699   0.00000
  33.00000 103.57089   0.00000
  33.20000 103.86372   0.00000
  33.40000 104.15548   0.00000
  33.60000 104.44614   0.00000
  33.80000 104.73571   0.00000
  34.00000 105.02419   0.00000
  34.20000 105.31162   0.00000
  34.40000 105.59802   0.00000
  34.60000 105.88336   0.00000
  34.80000 106.16759   0.00000
  35.00000 106.45076   0.00000
  35.20000 106.73297   0.00000
  35.40000 107.01440   0.00000
  35.60000 107.29498   0.00000
  35.80000 107.57463   0.00000
  36.00000 107.85326   0.00000
  36.20000 108.13083   0.00000
  36.40000 108.40752   0.00000
  36.60000 108.68335   0.00000
  36.80000 108.95844   0.00000
  37.00000 109.23268   0.00000
  37.20000 109.50599   0.00000
  37.40000 109.77841   0.00000
  37.60000 110.04998   0.00000
  37.80000 110.32084   0.00000
  38.00000 110.59104   0.00000
  38.20000 110.86051   0.00000
  38.40000 111.12916   0.00000
  38.60000 111.39699   0.00000
  38.80000 111.66412   0.00000
  39.00000 111.93066   0.00000
  39.20000 112.19650   0.00000
  39.40000 112.46140   0.00000
  39.60000 112.72531   0.00000
  39.80000 112.98825   0.00000
  40.00000 113.25043   0.00000
  40.20000 113.51196   0.00000
  40.40000 113.77238   0.00000
  40.60000 114.03192   0.00000
  40.80000 114.29047   0.00000
  41.00000 114.54819   0.00000
  41.20000 114.80534   0.00000
  41.40000 115.06174   0.00000
  41.60000 115.31736   0.00000
  41.80000 115.57222   0.00000
  42.00000 115.82623   0.00000
  42.20000 116.07948   0.00000
  42.40000 116.33205   0.00000
  42.60000 116.58379   0.00000
  42.80000 116.83484   0.00000
  43.00000 117.08515   0.00000
  43.20000 117.33481   0.00000
  43.40000 117.58382   0.00000
  43.60000 117.83213  -0.00001
  43.80000 118.07977  -0.00001
  44.00000 118.32665  -0.00001
  44.20000 118.57287  -0.00001
  44.40000 118.81841  -0.00001
  44.60000 119.06331  -0.00001
  44.80000 119.30769  -0.00001
  45.00000 119.55152  -0.00001
  45.20000 119.79480  -0.00001
  45.40000 120.03752  -0.00001
  45.60000 120.27959  -0.00001
  45.80000 120.52104  -0.00001
  46.00000 120.76186  -0.00001
  46.20000 121.00205  -0.00001
  46.40000 121.24157  -0.00001
  46.60000 121.48044  -0.00001
  46.80000 121.71864  -0.00001
  47.00000 121.95616  -0.00001
  47.20000 122.19304  -0.00001
  47.40000 122.42922  -0.00001
  47.60000 122.66469  -0.00001
  47.80000 122.89945  -0.00001
  48.00000 123.13340  -0.00001
  48.20000 123.36665  -0.00001
  48.40000 123.59920  -0.00001
  48.60000 123.83106  -0.00001
  48.80000 124.06229  -0.00001
  49.00000 124.29287  -0.00001
  49.20000 124.52288  -0.00001
  49.40000 124.75234  -0.00001
  49.60000 124.98123  -0.00001
  49.80000 125.20952  -0.00001
  50.00000 125.43718  -0.00001
  50.20000 125.66421  -0.00001
  50.40000 125.89068  -0.00001
  50.60000 126.11660  -0.00001
  50.80000 126.34201  -0.00001
  51.00000 126.56689  -0.00001
  51.20000 126.79123  -0.00001
  51.40000 127.01504  -0.00001
  51.60000 127.23834  -0.00001
  51.80000 127.46113  -0.00001
  52.00000 127.68344  -0.00001
  52.20000 127.90525  -0.00001
  52.40000 128.12657  -0.00001
  52.60000 128.34739  -0.00002
  52.80000 128.56770  -0.00002
  53.00000 128.78750  -0.00002
  53.20000 129.00678  -0.00002
  53.40000 129.22553  -0.00002
  53.60000 129.44375  -0.00002
  53.80000 129.66140  -0.00002
  54.00000 129.87848  -0.00002
  54.20000 130.09499  -0.00002
  54.40000 130.31094  -0.00002
  54.60000 130.52631  -0.00002
  54.80000 130.74111  -0.00002
  55.00000 130.95533  -0.00002
  55.20000 131.16897  -0.00002
  55.40000 131.38205  -0.00002
  55.60000 131.59452  -0.00002
  55.80000 131.80645  -0.00002
  56.00000 132.01782  -0.00002
  56.20000 132.22862  -0.00002
  56.40000 132.43885  -0.00002
  56.60000 132.64855  -0.00002
  56.80000 132.85781  -0.00002
  57.00000 133.06664  -0.00002
  57.20000 133.27508  -0.00002
  57.40000 133.48328  -0.00002
  57.60000 133.69111  -0.00002
  57.80000 133.89857  -0.00002
  58.00000 134.10568  -0.00002
  58.20000 134.31238  -0.00002
  58.40000 134.51861  -0.00002
  58.60000 134.72445  -0.00002
  58.80000 134.92987  -0.00002
  59.00000 135.13488  -0.00002
  59.20000 135.33951  -0.00003
  59.40000 135.54376  -0.00003
  59.60000 135.74759  -0.00003
  59.80000 135.95100  -0.00003
  60.00000 136.15400  -0.00003
  60.20000 136.35659  -0.00003
  60.40000 136.55872  -0.00003
  60.60000 136.76037  -0.00003
  60.80000 136.96151  -0.00003
  61.00000 137.16213  -0.00003
  61.20000 137.36224  -0.00003
  61.40000 137.56184  -0.00003
  61.60000 137.76096  -0.00003
  61.80000 137.95961  -0.00003
  62.00000 138.15773  -0.00003
  62.20000 138.35529  -0.00003
  62.40000 138.55231  -0.00003
  62.60000 138.74875  -0.00003
  62.80000 138.94460  -0.00003
  63.00000 139.13992  -0.00003
  63.20000 139.33478  -0.00003
  63.40000 139.52920  -0.00003
  63.60000 139.72324  -0.00003
  63.80000 139.91691  -0.00003
  64.00000 140.11025  -0.00003
  64.20000 140.30322  -0.00003
  64.40000 140.49579  -0.00003
  64.60000 140.68798  -0.00003
  64.80000 140.87978  -0.00003
  65.00000 141.07114  -0.00003
  65.20000 141.26212  -0.00003
  65.40000 141.45275  -0.00003
  65.60000 141.64302  -0.00003
  65.80000 141.83294  -0.00003
  66.00000 142.02257  -0.00003
  66.20000 142.21188  -0.00003
  66.40000 142.40088  -0.00003
  66.60000 142.58959  -0.00003
  66.80000 142.77804  -0.00003
  67.00000 142.96623  -0.00003
  67.20000 143.15415  -0.00003
  67.40000 143.34178  -0.00003
  67.60000 143.52916  -0.00003
  67.80000 143.71630  -0.00003
  68.00000 143.90313  -0.00003
  68.20000 144.08964  -0.00004
  68.40000 144.27587  -0.00004
  68.60000 144.46169  -0.00004
  68.80000 144.64710  -0.00004
  69.00000 144.83208  -0.00005
  69.20000 145.01659  -0.00005
  69.40000 145.20050  -0.00005
  69.60000 145.38385  -0.00005
  69.80000 145.56661  -0.00005
  70.00000 145.74873  -0.00005
  70.20000 145.93039  -0.00005
  70.40000 146.11169  -0.00006
  70.60000 146.29266  -0.00005
  70.80000 146.47333  -0.00005
  71.00000 146.65371  -0.00005
  71.20000 146.83376  -0.00006
  71.40000 147.01342  -0.00006
  71.60000 147.19270  -0.00006
  71.80000 147.37169  -0.00006
  72.00000 147.55050  -0.00006
  72.20000 147.72914  -0.00006
  72.40000 147.90757  -0.00006
  72.60000 148.08586  -0.00006
  72.80000 148.26386  -0.00006
  73.00000 148.44150  -0.00005
  73.20000 148.61866  -0.00005
  73.40000 148.79535  -0.00005
  73.60000 148.97155  -0.00005
  73.80000 149.14730  -0.00005
  74.00000 149.32267  -0.00005
  74.20000 149.49768  -0.00005
  74.40000 149.67230  -0.00005
  74.60000 149.84647  -0.00005
  74.80000 150.02014  -0.00005
  75.00000 150.19332  -0.00005
  75.20000 150.36591  -0.00005
  75.40000 150.53811  -0.00005
  75.60000 150.71003  -0.00005
  75.80000 150.88181  -0.00006
  76.00000 151.05340  -0.00006
  76.20000 151.22476  -0.00006
  76.40000 151.39586  -0.00006
  76.60000 151.56648  -0.00006
  76.80000 151.73674  -0.00006
  77.00000 151.90668  -0.00006
  77.20000 152.07636  -0.00006
  77.40000 152.24602  -0.00006
  77.60000 152.41574  -0.00005
  77.80000 152.58557  -0.00005
  78.00000 152.75520  -0.00005
  78.20000 152.92461  -0.00005
  78.40000 153.09378  -0.00005
  78.60000 153.26253  -0.00005
  78.80000 153.43073  -0.00005
  79.00000 153.59854  -0.00005
  79.20000 153.76600  -0.00005
  79.40000 153.93308  -0.00005
  79.60000 154.09984  -0.00005
  79.80000 154.26629  -0.00005
  80.00000 154.43241  -0.00005
  80.20000 154.59816  -0.00005
  80.40000 154.76356  -0.00005
  80.60000 154.92859  -0.00005
  80.80000 155.09313  -0.00004
  81.00000 155.25725  -0.00004
  81.20000 155.42100  -0.00004
  81.40000 155.58437  -0.00004
  81.60000 155.74734  -0.00004
  81.80000 155.90994  -0.00004
  82.00000 156.07222  -0.00004
  82.20000 156.23417  -0.00004
  82.40000 156.39578  -0.00004
  82.60000 156.55708  -0.00004
  82.80000 156.71805  -0.00004
  83.00000 156.87874  -0.00004
  83.20000 157.03916  -0.00004
  83.40000 157.19932  -0.00004
  83.60000 157.35919  -0.00004
  83.80000 157.51883  -0.00004
  84.00000 157.67824  -0.00004
  84.20000 157.83738  -0.00004
  84.40000 157.99623  -0.00004
  84.60000 158.15476  -0.00004
  84.80000 158.31301  -0.00004
  85.00000 158.47096  -0.00004
  85.20000 158.62862  -0.00004
  85.40000 158.78599  -0.00004
  85.60000 158.94314  -0.00004
  85.80000 159.10006  -0.00004
  86.00000 159.25672  -0.00004
  86.20000 159.41312  -0.00004
  86.40000 159.56926  -0.00004
  86.60000 159.72514  -0.00004
  86.80000 159.88075  -0.00004
  87.00000 160.03609  -0.00004
  87.20000 160.19116  -0.00004
  87.40000 160.34595  -0.00004
  87.60000 160.50046  -0.00004
  87.80000 160.65468  -0.00004
  88.00000 160.80862  -0.00004
  88.20000 160.96226  -0.00004
  88.40000 161.11563  -0.00004
  88.60000 161.26873  -0.00004
  88.80000 161.42156  -0.00004
  89.00000 161.57412  -0.00004
  89.20000 161.72647  -0.00004
  89.40000 161.87859  -0.00004
  89.60000 162.03043  -0.00004
  89.80000 162.18197  -0.00004
  90.00000 162.33320  -0.00003
  90.20000 162.48409  -0.00003
  90.40000 162.63455  -0.00003
  90.60000 162.78459  -0.00003
  90.80000 162.93425  -0.00003
  91.00000 163.08360  -0.00003
  91.20000 163.23264  -0.00002
  91.40000 163.38140  -0.00002
  91.60000 163.52992  -0.00003
  91.80000 163.67823  -0.00003
  92.00000 163.82628  -0.00003
  92.20000 163.97408  -0.00003
  92.40000 164.12164  -0.00003
  92.60000 164.26895  -0.00003
  92.80000 164.41602  -0.00003
  93.00000 164.56286  -0.00003
  93.20000 164.70949  -0.00003
  93.40000 164.85591  -0.00003
  93.60000 165.00213  -0.00003
  93.80000 165.14817  -0.00003
  94.00000 165.29403  -0.00003
  94.20000 165.43971  -0.00003
  94.40000 165.58522  -0.00003
  94.60000 165.73058  -0.00003
  94.80000 165.87575  -0.00003
  95.00000 166.02074  -0.00003
  95.20000 166.16554  -0.00003
  95.40000 166.31016  -0.00003
  95.60000 166.45462  -0.00002
  95.80000 166.59890  -0.00002
  96.00000 166.74301  -0.00002
  96.20000 166.88694  -0.00002
  96.40000 167.03071  -0.00002
  96.60000 167.17438  -0.00002
  96.80000 167.31784  -0.00002
  97.00000 167.46117  -0.00002
  97.20000 167.60430  -0.00002
  97.40000 167.74719  -0.00002
  97.60000 167.88983  -0.00002
  97.80000 168.03213  -0.00002
  98.00000 168.17407  -0.00002
  98.20000 168.31577  -0.00002
  98.40000 168.45723  -0.00002
  98.60000 168.59840  -0.00002
  98.80000 168.73928  -0.00001
  99.00000 168.87987  -0.00001
  99.20000 169.02018  -0.00001
  99.40000 169.16020  -0.00001
  99.60000 169.29997  -0.00001
  99.80000 169.43942  -0.00001
 100.00000 169.57849  -0.00001
